USGS Digital Spectral Library splib06a
Clark and others 2007, USGS, Data Series 231.

For further information on spectrsocopy, see: http://speclab.cr.usgs.gov

ASCII Spectral Data file contents:
line 15 title
line 16 history
line 17 to end:  3-columns of data:
     wavelength    reflectance    standard deviation

(standard deviation of 0.000000 means not measured)
(      -1.23e34  indicates a deleted number)
----------------------------------------------------
Olivine GDS70.b Fo89 115um   W1R1Bb AREF
copy of splib05a r 5051                                     
       0.205100      -1.23e34        0.013385
       0.213100      -1.23e34        0.002599
       0.221100      -1.23e34        0.002239
       0.229100      -1.23e34        0.001348
       0.236100      -1.23e34        0.001442
       0.242100      -1.23e34        0.000552
       0.248100      -1.23e34        0.000851
       0.253600      -1.23e34        0.000758
       0.258600      -1.23e34        0.000856
       0.263600       0.063545       0.001414
       0.268600       0.063111       0.000952
       0.273100       0.064706       0.000481
       0.277100       0.065364       0.000726
       0.281100       0.066760       0.000828
       0.285100       0.067306       0.000610
       0.289100       0.069706       0.000839
       0.293100       0.070613       0.000811
       0.297100       0.071637       0.000615
       0.301100       0.072518       0.001019
       0.305100       0.074286       0.001778
       0.309100       0.075389       0.001495
       0.313100       0.079305       0.001832
       0.317100       0.081134       0.001843
       0.321100       0.085693       0.001851
       0.325100       0.091731       0.001866
       0.329100       0.095331       0.001855
       0.333100       0.102851       0.001864
       0.337100       0.113590       0.001861
       0.341100       0.122683       0.001862
       0.345100       0.130478       0.001855
       0.349100       0.140962       0.001861
       0.353100       0.155759       0.001015
       0.357100       0.165049       0.001793
       0.360600       0.176970       0.001238
       0.363600       0.181472       0.001312
       0.366600       0.189600       0.001367
       0.369600       0.196130       0.001056
       0.372600       0.202970       0.001127
       0.375600       0.206791       0.000890
       0.378600       0.211436       0.001184
       0.381100       0.219697       0.001473
       0.383100       0.220217       0.001300
       0.385100       0.222709       0.001169
       0.387100       0.228613       0.000966
       0.389100       0.227906       0.001560
       0.391100       0.234666       0.000781
       0.393100       0.233082       0.001025
       0.395100       0.239696       0.001137
       0.397100       0.242189       0.001086
       0.399100       0.245669       0.000997
       0.401100       0.246600       0.001069
       0.403100       0.247633       0.001255
       0.405100       0.256468       0.000573
       0.407100       0.261285       0.000621
       0.409100       0.264152       0.001048
       0.411100       0.267698       0.001790
       0.412800       0.273751       0.001041
       0.415800       0.273124       0.000878
       0.418800       0.278453       0.001163
       0.421800       0.278340       0.001154
       0.424800       0.281579       0.000752
       0.427800       0.282391       0.000890
       0.430800       0.283006       0.001333
       0.433800       0.284591       0.001225
       0.436800       0.286123       0.000984
       0.439800       0.288256       0.001096
       0.442800       0.289771       0.000345
       0.445800       0.287765       0.000881
       0.448800       0.287067       0.001431
       0.451300       0.289645       0.001799
       0.453300       0.287401       0.001566
       0.455300       0.289118       0.001755
       0.457300       0.291456       0.001788
       0.459300       0.292566       0.001775
       0.461300       0.295412       0.001433
       0.463300       0.298890       0.001466
       0.465300       0.301449       0.001147
       0.467300       0.302869       0.001431
       0.469300       0.305192       0.001739
       0.471300       0.305341       0.001773
       0.473300       0.310001       0.001157
       0.475300       0.313835       0.001550
       0.477300       0.319169       0.001240
       0.479300       0.322807       0.001342
       0.481300       0.327425       0.001455
       0.483300       0.330049       0.001227
       0.485300       0.329604       0.001181
       0.487300       0.333684       0.001182
       0.489300       0.334957       0.001681
       0.491300       0.341320       0.001060
       0.493300       0.344693       0.000850
       0.495300       0.345895       0.001232
       0.497300       0.353169       0.001064
       0.499300       0.360058       0.000973
       0.501300       0.367718       0.001097
       0.503300       0.375522       0.001516
       0.505300       0.379859       0.001252
       0.507300       0.387057       0.001168
       0.509300       0.392052       0.001051
       0.511300       0.396083       0.001218
       0.513300       0.401594       0.001122
       0.515300       0.405257       0.001344
       0.517300       0.411471       0.001288
       0.519300       0.415420       0.001408
       0.521300       0.418251       0.001561
       0.523300       0.422645       0.001666
       0.525300       0.428280       0.001256
       0.527300       0.431839       0.001222
       0.529300       0.431802       0.001535
       0.531300       0.438265       0.001557
       0.533300       0.443316       0.001821
       0.535300       0.445537       0.001294
       0.537300       0.452766       0.001760
       0.539300       0.453006       0.001369
       0.541300       0.460243       0.001140
       0.543300       0.463421       0.001223
       0.545300       0.466161       0.001234
       0.547300       0.469692       0.001310
       0.549300       0.473603       0.000926
       0.551300       0.476094       0.001020
       0.553300       0.476124       0.001348
       0.555300       0.478823       0.001005
       0.557300       0.480521       0.000996
       0.559300       0.480338       0.001535
       0.561300       0.481015       0.001791
       0.563300       0.482004       0.001457
       0.565300       0.483744       0.001073
       0.567300       0.482990       0.001259
       0.569300       0.481426       0.001294
       0.571300       0.479830       0.001779
       0.573300       0.483225       0.001523
       0.575300       0.481482       0.001764
       0.577300       0.480459       0.001370
       0.579300       0.478124       0.001794
       0.581300       0.478625       0.001803
       0.583300       0.473962       0.001795
       0.585300       0.475518       0.001816
       0.587300       0.474867       0.001765
       0.589300       0.473325       0.001761
       0.591300       0.474972       0.001657
       0.593300       0.469573       0.001792
       0.595300       0.468965       0.001280
       0.597300       0.465523       0.001738
       0.599300       0.465296       0.001566
       0.601100       0.463924       0.001634
       0.602700       0.466068       0.000654
       0.604300       0.460822       0.001316
       0.605900       0.460368       0.001763
       0.607500       0.460562       0.001037
       0.609100       0.456774       0.001131
       0.610700       0.454502       0.001754
       0.612300       0.452779       0.001184
       0.613900       0.451823       0.001236
       0.615500       0.449272       0.001244
       0.617100       0.446475       0.001387
       0.618700       0.443384       0.000990
       0.620300       0.441944       0.001455
       0.621900       0.439637       0.001527
       0.623500       0.437433       0.001380
       0.625100       0.436595       0.001419
       0.626700       0.432071       0.001039
       0.628300       0.430524       0.001006
       0.629900       0.432942       0.001063
       0.631700       0.433314       0.000715
       0.633700       0.427219       0.001234
       0.635700       0.425942       0.001380
       0.637700       0.424700       0.000953
       0.639700       0.427767       0.001203
       0.641700       0.421505       0.001764
       0.643700       0.421994       0.001553
       0.645700       0.420879       0.001588
       0.647700       0.422397       0.001274
       0.649700       0.424921       0.001035
       0.651700       0.420653       0.001280
       0.653700       0.423290       0.001730
       0.655700       0.424163       0.001688
       0.657700       0.421108       0.001768
       0.659700       0.421278       0.001764
       0.661700       0.419744       0.001754
       0.663700       0.418722       0.001747
       0.665700       0.423440       0.001758
       0.667700       0.422587       0.001660
       0.670200       0.424576       0.001483
       0.673200       0.424468       0.001012
       0.676200       0.426509       0.001756
       0.679200       0.427988       0.001733
       0.682200       0.431825       0.001156
       0.685200       0.421843       0.001772
       0.688200       0.420577       0.001746
       0.691200       0.419518       0.000994
       0.694200       0.417327       0.001728
       0.697200       0.416488       0.001768
       0.700200       0.412597       0.001754
       0.702000       0.414652       0.001560
       0.704000       0.414074       0.001626
       0.706000       0.413981       0.001762
       0.708000       0.413150       0.001439
       0.710000       0.412767       0.001290
       0.712000       0.410122       0.001747
       0.714000       0.411414       0.000994
       0.716000       0.411198       0.001740
       0.718000       0.409923       0.001394
       0.720000       0.407704       0.001775
       0.722000       0.408568       0.001762
       0.724000       0.405746       0.001762
       0.726000       0.406357       0.001437
       0.728000       0.404963       0.001758
       0.730000       0.403680       0.001793
       0.732000       0.401071       0.001789
       0.734000       0.397861       0.001803
       0.736000       0.397687       0.001789
       0.738000       0.396295       0.001801
       0.740000       0.396989       0.001810
       0.742000       0.389937       0.001784
       0.744000       0.389393       0.001800
       0.746000       0.387739       0.001802
       0.748000       0.385978       0.001792
       0.750500       0.382718       0.001439
       0.753500       0.377939       0.001676
       0.756500       0.375071       0.001786
       0.759500       0.369313       0.001780
       0.762500       0.367436       0.001816
       0.765500       0.359210       0.001773
       0.768500       0.362305       0.001682
       0.771500       0.353177       0.001812
       0.774500       0.351010       0.001793
       0.777500       0.346434       0.001818
       0.781000       0.341257       0.001267
       0.785000       0.335714       0.001721
       0.789000       0.328599       0.001806
       0.793000       0.322883       0.001807
       0.797000       0.321325       0.001826
       0.801500       0.316285       0.001822
       0.806500       0.309884       0.001784
       0.811500       0.304815       0.001795
       0.816500       0.299600       0.001710
       0.822000       0.292236       0.001780
       0.828000       0.288560       0.001843
       0.835000       0.279965       0.002418
       0.843000       0.277079       0.003235
       0.851000       0.272047       0.001865
       0.859000       0.265158       0.001843
       0.871000       0.257866       0.001476
       0.883000       0.249977       0.001070
       0.894000       0.244271       0.001004
       0.904000       0.238724       0.000874
       0.914000       0.230419       0.000871
       0.924000       0.220798       0.000518
       0.933000       0.211287       0.000741
       0.941000       0.203337       0.000696
       0.949000       0.195080       0.000705
       0.957000       0.186132       0.000929
       0.964000       0.178865       0.001080
       0.970000       0.174562       0.000774
       0.976000       0.167768       0.000923
       0.982000       0.161824       0.000791
       0.988000       0.157587       0.000616
       0.994000       0.152428       0.000664
       1.000000       0.148127       0.000804
       1.006000       0.144071       0.000932
       1.012000       0.140862       0.000570
       1.018000       0.138970       0.000666
       1.023500       0.135674       0.000769
       1.028500       0.134286       0.000921
       1.033500       0.133922       0.000823
       1.038500       0.130184       0.000882
       1.043500       0.130931       0.000809
       1.048500       0.130511       0.000603
       1.053500       0.128848       0.000829
       1.058500       0.128554       0.000886
       1.063500       0.128697       0.000827
       1.068500       0.128968       0.000683
       1.073500       0.130329       0.000663
       1.078500       0.131925       0.000830
       1.083500       0.131655       0.000680
       1.088500       0.134067       0.001084
       1.093500       0.136338       0.000801
       1.098500       0.137937       0.000796
       1.103500       0.140502       0.000487
       1.108500       0.141191       0.000605
       1.113500       0.144582       0.000780
       1.118500       0.147188       0.000606
       1.123500       0.149409       0.000595
       1.128500       0.152019       0.000591
       1.133500       0.154318       0.000509
       1.138500       0.156610       0.000546
       1.143500       0.158688       0.000992
       1.148500       0.159823       0.000811
       1.153500       0.162201       0.000893
       1.158500       0.162927       0.000578
       1.163500       0.165686       0.000669
       1.168500       0.167297       0.000743
       1.173500       0.168523       0.000597
       1.178500       0.170801       0.000845
       1.183500       0.171645       0.000731
       1.188500       0.173998       0.001041
       1.193500       0.174118       0.000684
       1.198500       0.175339       0.000779
       1.203500       0.176689       0.000690
       1.208500       0.178205       0.000751
       1.213500       0.179663       0.000566
       1.218500       0.180743       0.000655
       1.223500       0.182203       0.000603
       1.228500       0.185164       0.000493
       1.233500       0.185561       0.000862
       1.238500       0.186474       0.000575
       1.243500       0.188385       0.000637
       1.248500       0.190164       0.000630
       1.253500       0.191152       0.000667
       1.258500       0.192073       0.000583
       1.263500       0.195123       0.000683
       1.268500       0.197373       0.000680
       1.273500       0.199165       0.000490
       1.278500       0.200957       0.000801
       1.283500       0.203564       0.000769
       1.288500       0.205346       0.000582
       1.293500       0.208228       0.000546
       1.298500       0.211097       0.000531
       1.303500       0.213880       0.000848
       1.308500       0.216498       0.000568
       1.313500       0.218883       0.000774
       1.318500       0.222761       0.000748
       1.323500       0.225700       0.000687
       1.328500       0.229456       0.000667
       1.333500       0.232997       0.000674
       1.338500       0.237699       0.000579
       1.343500       0.240797       0.000722
       1.348500       0.244899       0.000599
       1.353500       0.248532       0.000925
       1.358500       0.254456       0.000945
       1.363500       0.258488       0.000882
       1.368500       0.262053       0.001041
       1.373500       0.267538       0.000839
       1.378500       0.272399       0.000743
       1.383500       0.277273       0.000768
       1.388500       0.282964       0.000825
       1.393500       0.288127       0.000725
       1.398500       0.293536       0.000839
       1.403500       0.299499       0.000908
       1.408500       0.304767       0.001050
       1.413500       0.311071       0.001026
       1.418500       0.317492       0.000965
       1.423500       0.324039       0.000864
       1.428500       0.329140       0.000925
       1.433500       0.334503       0.000996
       1.438500       0.342280       0.000780
       1.443500       0.350646       0.001090
       1.448500       0.356931       0.001073
       1.453500       0.362309       0.000887
       1.458500       0.368771       0.000886
       1.463500       0.376661       0.000865
       1.468500       0.383918       0.001057
       1.473500       0.390285       0.000896
       1.478500       0.397018       0.000939
       1.483500       0.404279       0.001186
       1.488500       0.412475       0.000727
       1.493500       0.418462       0.001084
       1.498500       0.426216       0.001378
       1.503500       0.434759       0.000936
       1.508500       0.440583       0.001129
       1.513500       0.449344       0.001095
       1.518500       0.452776       0.001202
       1.523500       0.462668       0.001454
       1.528500       0.469662       0.001017
       1.534000       0.478282       0.001015
       1.540000       0.485227       0.000666
       1.546000       0.495766       0.000733
       1.552000       0.504049       0.000706
       1.558000       0.511909       0.000877
       1.564000       0.520016       0.000655
       1.570500       0.527887       0.000751
       1.577500       0.537280       0.000510
       1.584500       0.545280       0.000698
       1.591500       0.556325       0.000660
       1.598500       0.562095       0.000663
       1.605500       0.568047       0.000706
       1.612500       0.577108       0.000637
       1.619500       0.584593       0.000780
       1.626500       0.589546       0.000915
       1.633500       0.596759       0.000616
       1.640500       0.603518       0.000897
       1.647500       0.611459       0.000855
       1.654500       0.617828       0.000938
       1.661500       0.620276       0.000835
       1.668500       0.626031       0.000811
       1.676000       0.627820       0.000878
       1.684000       0.635297       0.001224
       1.692000       0.640646       0.001307
       1.700000       0.642587       0.001368
       1.708000       0.648158       0.000987
       1.716000       0.650330       0.000853
       1.724000       0.653806       0.000923
       1.732000       0.657110       0.001174
       1.740000       0.661266       0.001360
       1.748000       0.656170       0.001943
       1.756000       0.661411       0.001424
       1.764000       0.665885       0.001318
       1.772000       0.665508       0.001158
       1.780000       0.664277       0.001396
       1.788000       0.668433       0.001117
       1.796000       0.670142       0.001224
       1.805000       0.668870       0.000915
       1.815000       0.669528       0.000827
       1.825000       0.672837       0.000896
       1.835000       0.671807       0.000847
       1.845000       0.672003       0.001088
       1.855000       0.671945       0.001317
       1.865000       0.674207       0.001320
       1.875000       0.673759       0.001105
       1.885000       0.672192       0.001058
       1.895000       0.673299       0.000763
       1.905000       0.673789       0.001063
       1.915000       0.670560       0.001108
       1.925000       0.671616       0.001116
       1.935000       0.672646       0.001136
       1.945000       0.673396       0.001012
       1.955000       0.671091       0.001098
       1.965000       0.673914       0.001517
       1.975000       0.673766       0.001271
       1.985000       0.676100       0.001277
       1.995000       0.671600       0.001471
       2.005000       0.677807       0.001648
       2.015000       0.677104       0.001488
       2.025000       0.680836       0.001419
       2.035000       0.679206       0.001083
       2.045000       0.680684       0.001317
       2.055000       0.682084       0.001585
       2.065000       0.681247       0.001583
       2.075000       0.681518       0.001680
       2.085000       0.681956       0.001718
       2.095000       0.683653       0.001930
       2.105000       0.684789       0.001697
       2.115000       0.688365       0.001611
       2.125000       0.687642       0.001995
       2.135000       0.688102       0.001887
       2.145000       0.686515       0.001940
       2.155000       0.685758       0.001820
       2.165000       0.686810       0.001311
       2.175000       0.685751       0.001947
       2.185000       0.686569       0.001882
       2.195000       0.685003       0.002022
       2.205000       0.685551       0.002026
       2.215000       0.686033       0.001500
       2.225000       0.682831       0.002020
       2.235000       0.685625       0.002018
       2.245000       0.680393       0.002025
       2.255000       0.684237       0.002035
       2.265000       0.685888       0.002041
       2.275000       0.683318       0.002035
       2.285000       0.685755       0.002047
       2.295000       0.687273       0.002198
       2.305000       0.687507       0.002120
       2.315000       0.687396       0.002044
       2.325000       0.691495       0.002032
       2.335000       0.693890       0.001976
       2.345000       0.690500       0.001732
       2.355000       0.695198       0.001735
       2.365000       0.697813       0.001957
       2.375000       0.696997       0.001780
       2.386000       0.692697       0.001159
       2.400000       0.693594       0.000920
       2.418000       0.695157       0.000876
       2.440000       0.695622       0.000963
       2.466000       0.695029       0.000855
       2.496000       0.699997       0.000791
       2.528000       0.700161       0.000931
       2.560000       0.695278       0.001502
       2.592000       0.694746       0.001930
       2.624000       0.695038       0.001909
       2.656000       0.693035       0.001873
       2.688000       0.688042       0.002569
       2.720000      -1.23e34       -1.23e34 
       2.752000      -1.23e34       -1.23e34 
       2.784000      -1.23e34       -1.23e34 
       2.816000      -1.23e34       -1.23e34 
       2.848000      -1.23e34       -1.23e34 
       2.880000      -1.23e34       -1.23e34 
       2.912000      -1.23e34       -1.23e34 
       2.944000      -1.23e34       -1.23e34 
       2.976000      -1.23e34       -1.23e34 
